 *****  MODTRAN3 Version 1.3  12/1/95  *****
0 CARD 1  *****T   1    3    1    0    0    0    0    0    0    0    0    0   -1   0.000  -1.00
 co2mx co2rat ch4rat h2orat t_o3rat s_o3rat scalefreon    0.00000000       0.00000000       0.00000000       10.0000000       0.00000000       0.00000000       0.00000000    
0 CARD 2  *****    0    0    0    0    0    0     0.000     0.000     0.000     0.000     0.000
 ***ERROR RELHUM      0.7553E+03  AT ALT         0.000
 ***ERROR RELHUM      0.7277E+03  AT ALT         1.000
 ***ERROR RELHUM      0.7451E+03  AT ALT         2.000
 ***ERROR RELHUM      0.4825E+03  AT ALT         3.000
 ***ERROR RELHUM      0.3491E+03  AT ALT         4.000
 ***ERROR RELHUM      0.3771E+03  AT ALT         5.000
 ***ERROR RELHUM      0.3479E+03  AT ALT         6.000
 ***ERROR RELHUM      0.3198E+03  AT ALT         7.000
 ***ERROR RELHUM      0.2947E+03  AT ALT         8.000
 ***ERROR RELHUM      0.2535E+03  AT ALT         9.000
 ***ERROR RELHUM      0.1951E+03  AT ALT        10.000
 ***ERROR RELHUM      0.1315E+03  AT ALT        11.000
 ***ERROR RELHUM      0.1677E+03  AT ALT        16.000
 ***ERROR RELHUM      0.1924E+03  AT ALT        17.000
0 CARD 3  *****    70.000     0.000   180.000     0.000     0.000     0.000    0
0 CARD 4  *****         2      2200         2         3
0 PROGRAM WILL COMPUTE RADIANCE                
0 ATMOSPHERIC MODEL
          TEMPERATURE =    1     TROPICAL MODEL      
          WATER VAPOR =    1     TROPICAL MODEL      
          OZONE       =    1     TROPICAL MODEL      
                      M4 =     1 M5 =     1 M6 =     1 MDEF =     1
0 SLANT PATH TO SPACE
          H1    =     70.000 KM
          HMIN  =      0.000 KM
          ANGLE =    180.000 DEG
0 FREQUENCY RANGE
             IV1 =         2 CM-1  (   5000.00 MICROMETERS)
             IV2 =      2200 CM-1  (      4.55 MICROMETERS)
             IDV =         2 CM-1
           IFWHM =         3 CM-1
1
  ATMOSPHERIC PROFILES

   I     Z       P       T        N2       CNTMSLF MOL SCAT     N-1     O3 (UV)  O2 (UV)
        (KM)    (MB)    (K)            (MOL/CM2 KM)   (-)       (-)  (ATM CM/KM) (ATM CM/KM)

   1     0.00 1013.000  299.7  7.622E-01 1.623E+23 9.112E-01 2.508E-04 0.000E+00 3.342E+04
   2     1.00  904.000  293.7  6.321E-01 7.602E+22 8.298E-01 2.311E-04 0.000E+00 2.927E+04
   3     2.00  805.000  287.7  5.223E-01 3.892E+22 7.543E-01 2.116E-04 0.000E+00 2.562E+04
   4     3.00  715.000  283.7  4.238E-01 9.924E+21 6.794E-01 1.928E-04 0.000E+00 2.219E+04
   5     4.00  633.000  277.0  3.484E-01 2.176E+21 6.160E-01 1.760E-04 0.000E+00 1.945E+04
   6     5.00  559.000  270.3  2.853E-01 1.012E+21 5.575E-01 1.595E-04 0.000E+00 1.703E+04
   7     6.00  492.000  263.6  2.324E-01 3.249E+20 5.032E-01 1.443E-04 0.000E+00 1.490E+04
   8     7.00  432.000  257.0  1.885E-01 9.917E+19 4.531E-01 1.301E-04 0.000E+00 1.302E+04
   9     8.00  378.000  250.3  1.522E-01 2.810E+19 4.071E-01 1.170E-04 0.000E+00 1.138E+04
  10     9.00  329.000  243.6  1.217E-01 6.471E+18 3.641E-01 1.047E-04 0.000E+00 9.902E+03
  11    10.00  286.000  237.0  9.716E-02 1.125E+18 3.253E-01 9.354E-05 0.000E+00 8.629E+03
  12    11.00  247.000  230.1  7.688E-02 1.299E+17 2.894E-01 8.322E-05 0.000E+00 7.496E+03
  13    12.00  213.000  223.6  6.054E-02 1.618E+16 2.568E-01 7.385E-05 0.000E+00 6.507E+03
  14    13.00  182.000  217.0  4.693E-02 1.456E+15 2.261E-01 6.502E-05 0.000E+00 5.608E+03
  15    14.00  156.000  210.3  3.671E-02 4.497E+14 2.000E-01 5.751E-05 0.000E+00 4.870E+03
  16    15.00  132.000  203.7  2.802E-02 1.419E+14 1.747E-01 5.024E-05 0.000E+00 4.178E+03
  17    16.00  111.000  197.0  2.118E-02 6.036E+13 1.519E-01 4.368E-05 0.000E+00 3.572E+03
  18    17.00   93.700  194.8  1.544E-02 4.110E+13 1.297E-01 3.729E-05 0.000E+00 3.000E+03
  19    18.00   78.900  198.8  1.051E-02 2.516E+13 1.070E-01 3.077E-05 0.000E+00 2.433E+03
  20    19.00   66.600  202.7  7.202E-03 1.542E+13 8.857E-02 2.547E-05 0.000E+00 1.986E+03
  21    20.00   56.500  206.7  4.985E-03 1.067E+13 7.369E-02 2.119E-05 0.000E+00 1.633E+03
  22    21.00   48.000  210.7  3.463E-03 7.699E+12 6.141E-02 1.766E-05 0.000E+00 1.348E+03
  23    22.00   40.900  214.6  2.423E-03 6.016E+12 5.138E-02 1.478E-05 0.000E+00 1.119E+03
  24    23.00   35.000  217.0  1.736E-03 4.622E+12 4.348E-02 1.250E-05 0.000E+00 9.409E+02
  25    24.00   30.000  219.2  1.250E-03 4.052E+12 3.689E-02 1.061E-05 0.000E+00 7.942E+02
  26    25.00   25.700  221.4  8.990E-04 3.007E+12 3.129E-02 9.000E-06 0.000E+00 6.705E+02
  27    30.00   12.200  232.3  1.840E-04 9.323E+11 1.416E-02 4.072E-06 0.000E+00 2.992E+02
  28    35.00    6.000  243.1  4.064E-05 2.723E+11 6.654E-03 1.914E-06 0.000E+00 1.397E+02
  29    40.00    3.050  254.0  9.620E-06 8.236E+10 3.237E-03 9.310E-07 0.000E+00 6.779E+01
  30    45.00    1.590  264.8  2.405E-06 2.475E+10 1.619E-03 4.655E-07 0.000E+00 3.385E+01
  31    50.00    0.854  270.2  6.665E-07 7.597E+09 8.520E-04 2.450E-07 0.000E+00 1.781E+01
  32    70.00    0.058  218.9  4.684E-09 3.003E+07 7.143E-05 2.054E-08 0.000E+00 1.492E+00
  33   100.00    0.000  190.7  1.532E-13 7.763E+00 4.085E-07 1.175E-10 0.000E+00 6.532E-03
1
  ATMOSPHERIC PROFILES

   I     Z       P       T      CNTMFRN     HNO3    AEROSOL 1 AEROSOL 2 AEROSOL 3 AEROSOL 4 AER1*RH   CIRRUS         RH
        (KM)    (MB)    (K)   MOL/CM2 KM ATM CM/KM   (-)       (-)       (-)       (-)       (-)       (-)      (PERCNT)

   1     0.00 1013.000  299.7  4.640E+23 0.000E+00 0.000E+00 0.000E+00 0.000E+00 0.000E+00 0.000E+00 0.000E+00 1.000E+02
   2     1.00  904.000  293.7  3.144E+23 0.000E+00 0.000E+00 0.000E+00 0.000E+00 0.000E+00 0.000E+00 0.000E+00 1.000E+02
   3     2.00  805.000  287.7  2.150E+23 0.000E+00 0.000E+00 0.000E+00 0.000E+00 0.000E+00 0.000E+00 0.000E+00 1.000E+02
   4     3.00  715.000  283.7  1.056E+23 0.000E+00 0.000E+00 0.000E+00 0.000E+00 0.000E+00 0.000E+00 0.000E+00 1.000E+02
   5     4.00  633.000  277.0  4.686E+22 0.000E+00 0.000E+00 0.000E+00 0.000E+00 0.000E+00 0.000E+00 0.000E+00 1.000E+02
   6     5.00  559.000  270.3  2.924E+22 0.000E+00 0.000E+00 0.000E+00 0.000E+00 0.000E+00 0.000E+00 0.000E+00 1.000E+02
   7     6.00  492.000  263.6  1.515E+22 0.000E+00 0.000E+00 0.000E+00 0.000E+00 0.000E+00 0.000E+00 0.000E+00 1.000E+02
   8     7.00  432.000  257.0  7.601E+21 0.000E+00 0.000E+00 0.000E+00 0.000E+00 0.000E+00 0.000E+00 0.000E+00 1.000E+02
   9     8.00  378.000  250.3  3.654E+21 0.000E+00 0.000E+00 0.000E+00 0.000E+00 0.000E+00 0.000E+00 0.000E+00 1.000E+02
  10     9.00  329.000  243.6  1.574E+21 0.000E+00 0.000E+00 0.000E+00 0.000E+00 0.000E+00 0.000E+00 0.000E+00 1.000E+02
  11    10.00  286.000  237.0  5.875E+20 0.000E+00 0.000E+00 0.000E+00 0.000E+00 0.000E+00 0.000E+00 0.000E+00 1.000E+02
  12    11.00  247.000  230.1  1.779E+20 0.000E+00 0.000E+00 0.000E+00 0.000E+00 0.000E+00 0.000E+00 0.000E+00 1.000E+02
  13    12.00  213.000  223.6  5.572E+19 0.000E+00 0.000E+00 0.000E+00 0.000E+00 0.000E+00 0.000E+00 0.000E+00 9.253E+01
  14    13.00  182.000  217.0  1.472E+19 0.000E+00 0.000E+00 0.000E+00 0.000E+00 0.000E+00 0.000E+00 0.000E+00 5.881E+01
  15    14.00  156.000  210.3  7.236E+18 0.000E+00 0.000E+00 0.000E+00 0.000E+00 0.000E+00 0.000E+00 0.000E+00 7.410E+01
  16    15.00  132.000  203.7  3.551E+18 0.000E+00 0.000E+00 0.000E+00 0.000E+00 0.000E+00 0.000E+00 0.000E+00 9.923E+01
  17    16.00  111.000  197.0  2.014E+18 0.000E+00 0.000E+00 0.000E+00 0.000E+00 0.000E+00 0.000E+00 0.000E+00 1.000E+02
  18    17.00   93.700  194.8  1.419E+18 0.000E+00 0.000E+00 0.000E+00 0.000E+00 0.000E+00 0.000E+00 0.000E+00 1.000E+02
  19    18.00   78.900  198.8  9.158E+17 0.000E+00 0.000E+00 0.000E+00 0.000E+00 0.000E+00 0.000E+00 0.000E+00 8.321E+01
  20    19.00   66.600  202.7  5.934E+17 0.000E+00 0.000E+00 0.000E+00 0.000E+00 0.000E+00 0.000E+00 0.000E+00 3.752E+01
  21    20.00   56.500  206.7  4.107E+17 0.000E+00 0.000E+00 0.000E+00 0.000E+00 0.000E+00 0.000E+00 0.000E+00 1.818E+01
  22    21.00   48.000  210.7  2.908E+17 0.000E+00 0.000E+00 0.000E+00 0.000E+00 0.000E+00 0.000E+00 0.000E+00 9.217E+00
  23    22.00   40.900  214.6  2.150E+17 0.000E+00 0.000E+00 0.000E+00 0.000E+00 0.000E+00 0.000E+00 0.000E+00 5.033E+00
  24    23.00   35.000  217.0  1.595E+17 0.000E+00 0.000E+00 0.000E+00 0.000E+00 0.000E+00 0.000E+00 0.000E+00 3.313E+00
  25    24.00   30.000  219.2  1.267E+17 0.000E+00 0.000E+00 0.000E+00 0.000E+00 0.000E+00 0.000E+00 0.000E+00 2.401E+00
  26    25.00   25.700  221.4  9.258E+16 0.000E+00 0.000E+00 0.000E+00 0.000E+00 0.000E+00 0.000E+00 0.000E+00 1.611E+00
  27    30.00   12.200  232.3  2.332E+16 0.000E+00 0.000E+00 0.000E+00 0.000E+00 0.000E+00 0.000E+00 0.000E+00 2.817E-01
  28    35.00    6.000  243.1  5.924E+15 0.000E+00 0.000E+00 0.000E+00 0.000E+00 0.000E+00 0.000E+00 0.000E+00 5.440E-02
  29    40.00    3.050  254.0  1.585E+15 0.000E+00 0.000E+00 0.000E+00 0.000E+00 0.000E+00 0.000E+00 0.000E+00 1.173E-02
  30    45.00    1.590  264.8  4.345E+14 0.000E+00 0.000E+00 0.000E+00 0.000E+00 0.000E+00 0.000E+00 0.000E+00 2.777E-03
  31    50.00    0.854  270.2  1.267E+14 0.000E+00 0.000E+00 0.000E+00 0.000E+00 0.000E+00 0.000E+00 0.000E+00 1.041E-03
  32    70.00    0.058  218.9  6.679E+11 0.000E+00 0.000E+00 0.000E+00 0.000E+00 0.000E+00 0.000E+00 0.000E+00 6.767E-03
  33   100.00    0.000  190.7  1.942E+06 0.000E+00 0.000E+00 0.000E+00 0.000E+00 0.000E+00 0.000E+00 0.000E+00 1.583E-04
1
  ATMOSPHERIC PROFILES

   I      Z       P       T      H2O      O3       CO2      CO       CH4      N2O      O2       NH3      NO       NO2      SO2
         (KM)    (MB)    (K)  (                                    MBAR                                                       )
   1     0.00 1013.000  299.7  1.90E+02 0.00E+00 0.00E+00 0.00E+00 0.00E+00 0.00E+00 2.09E+05 0.00E+00 0.00E+00 0.00E+00 0.00E+00
   2     1.00  904.000  293.7  1.30E+02 0.00E+00 0.00E+00 0.00E+00 0.00E+00 0.00E+00 2.09E+05 0.00E+00 0.00E+00 0.00E+00 0.00E+00
   3     2.00  805.000  287.7  9.29E+01 0.00E+00 0.00E+00 0.00E+00 0.00E+00 0.00E+00 2.09E+05 0.00E+00 0.00E+00 0.00E+00 0.00E+00
   4     3.00  715.000  283.7  4.69E+01 0.00E+00 0.00E+00 0.00E+00 0.00E+00 0.00E+00 2.09E+05 0.00E+00 0.00E+00 0.00E+00 0.00E+00
   5     4.00  633.000  277.0  2.20E+01 0.00E+00 0.00E+00 0.00E+00 0.00E+00 0.00E+00 2.09E+05 0.00E+00 0.00E+00 0.00E+00 0.00E+00
   6     5.00  559.000  270.3  1.50E+01 0.00E+00 0.00E+00 0.00E+00 0.00E+00 0.00E+00 2.09E+05 0.00E+00 0.00E+00 0.00E+00 0.00E+00
   7     6.00  492.000  263.6  8.49E+00 0.00E+00 0.00E+00 0.00E+00 0.00E+00 0.00E+00 2.09E+05 0.00E+00 0.00E+00 0.00E+00 0.00E+00
   8     7.00  432.000  257.0  4.69E+00 0.00E+00 0.00E+00 0.00E+00 0.00E+00 0.00E+00 2.09E+05 0.00E+00 0.00E+00 0.00E+00 0.00E+00
   9     8.00  378.000  250.3  2.50E+00 0.00E+00 0.00E+00 0.00E+00 0.00E+00 0.00E+00 2.09E+05 0.00E+00 0.00E+00 0.00E+00 0.00E+00
  10     9.00  329.000  243.6  1.20E+00 0.00E+00 0.00E+00 0.00E+00 0.00E+00 0.00E+00 2.09E+05 0.00E+00 0.00E+00 0.00E+00 0.00E+00
  11    10.00  286.000  237.0  5.00E-01 0.00E+00 0.00E+00 0.00E+00 0.00E+00 0.00E+00 2.09E+05 0.00E+00 0.00E+00 0.00E+00 0.00E+00
  12    11.00  247.000  230.1  1.70E-01 0.00E+00 0.00E+00 0.00E+00 0.00E+00 0.00E+00 2.09E+05 0.00E+00 0.00E+00 0.00E+00 0.00E+00
  13    12.00  213.000  223.6  5.99E-02 0.00E+00 0.00E+00 0.00E+00 0.00E+00 0.00E+00 2.09E+05 0.00E+00 0.00E+00 0.00E+00 0.00E+00
  14    13.00  182.000  217.0  1.80E-02 0.00E+00 0.00E+00 0.00E+00 0.00E+00 0.00E+00 2.09E+05 0.00E+00 0.00E+00 0.00E+00 0.00E+00
  15    14.00  156.000  210.3  9.99E-03 0.00E+00 0.00E+00 0.00E+00 0.00E+00 0.00E+00 2.09E+05 0.00E+00 0.00E+00 0.00E+00 0.00E+00
  16    15.00  132.000  203.7  5.61E-03 0.00E+00 0.00E+00 0.00E+00 0.00E+00 0.00E+00 2.09E+05 0.00E+00 0.00E+00 0.00E+00 0.00E+00
  17    16.00  111.000  197.0  3.66E-03 0.00E+00 0.00E+00 0.00E+00 0.00E+00 0.00E+00 2.09E+05 0.00E+00 0.00E+00 0.00E+00 0.00E+00
  18    17.00   93.700  194.8  3.02E-03 0.00E+00 0.00E+00 0.00E+00 0.00E+00 0.00E+00 2.09E+05 0.00E+00 0.00E+00 0.00E+00 0.00E+00
  19    18.00   78.900  198.8  2.36E-03 0.00E+00 0.00E+00 0.00E+00 0.00E+00 0.00E+00 2.09E+05 0.00E+00 0.00E+00 0.00E+00 0.00E+00
  20    19.00   66.600  202.7  1.85E-03 0.00E+00 0.00E+00 0.00E+00 0.00E+00 0.00E+00 2.09E+05 0.00E+00 0.00E+00 0.00E+00 0.00E+00
  21    20.00   56.500  206.7  1.54E-03 0.00E+00 0.00E+00 0.00E+00 0.00E+00 0.00E+00 2.09E+05 0.00E+00 0.00E+00 0.00E+00 0.00E+00
  22    21.00   48.000  210.7  1.31E-03 0.00E+00 0.00E+00 0.00E+00 0.00E+00 0.00E+00 2.09E+05 0.00E+00 0.00E+00 0.00E+00 0.00E+00
  23    22.00   40.900  214.6  1.16E-03 0.00E+00 0.00E+00 0.00E+00 0.00E+00 0.00E+00 2.09E+05 0.00E+00 0.00E+00 0.00E+00 0.00E+00
  24    23.00   35.000  217.0  1.01E-03 0.00E+00 0.00E+00 0.00E+00 0.00E+00 0.00E+00 2.09E+05 0.00E+00 0.00E+00 0.00E+00 0.00E+00
  25    24.00   30.000  219.2  9.48E-04 0.00E+00 0.00E+00 0.00E+00 0.00E+00 0.00E+00 2.09E+05 0.00E+00 0.00E+00 0.00E+00 0.00E+00
  26    25.00   25.700  221.4  8.17E-04 0.00E+00 0.00E+00 0.00E+00 0.00E+00 0.00E+00 2.09E+05 0.00E+00 0.00E+00 0.00E+00 0.00E+00
  27    30.00   12.200  232.3  4.55E-04 0.00E+00 0.00E+00 0.00E+00 0.00E+00 0.00E+00 2.09E+05 0.00E+00 0.00E+00 0.00E+00 0.00E+00
  28    35.00    6.000  243.1  2.46E-04 0.00E+00 0.00E+00 0.00E+00 0.00E+00 0.00E+00 2.09E+05 0.00E+00 0.00E+00 0.00E+00 0.00E+00
  29    40.00    3.050  254.0  1.35E-04 0.00E+00 0.00E+00 0.00E+00 0.00E+00 0.00E+00 2.09E+05 0.00E+00 0.00E+00 0.00E+00 0.00E+00
  30    45.00    1.590  264.8  7.41E-05 0.00E+00 0.00E+00 0.00E+00 0.00E+00 0.00E+00 2.09E+05 0.00E+00 0.00E+00 0.00E+00 0.00E+00
  31    50.00    0.854  270.2  4.11E-05 0.00E+00 0.00E+00 0.00E+00 0.00E+00 0.00E+00 2.09E+05 0.00E+00 0.00E+00 0.00E+00 0.00E+00
  32    70.00    0.058  218.9  2.58E-06 0.00E+00 0.00E+00 0.00E+00 0.00E+00 0.00E+00 2.09E+05 0.00E+00 0.00E+00 0.00E+00 0.00E+00
  33   100.00    0.000  190.7  1.31E-09 0.00E+00 0.00E+00 0.00E+00 0.00E+00 0.00E+00 1.60E+05 0.00E+00 0.00E+00 0.00E+00 0.00E+00
1
  ATMOSPHERIC PROFILES

   I      Z       P       T     CFC-11   CFC-12   CFC-13   CFC-14   CFC-22   CFC-113  CFC-114  CFC-115  CLONO2    HNO4    CHCL2F 
                                 CCL4     N2O5  
         (KM)    (MB)    (K)  (                                 ATM CM/KM                                                     )
   1     0.00 1013.000  299.7  0.00E+00 0.00E+00 0.00E+00 0.00E+00 0.00E+00 0.00E+00 0.00E+00 0.00E+00 0.00E+00 0.00E+00 0.00E+00
                               0.00E+00 0.00E+00
   2     1.00  904.000  293.7  0.00E+00 0.00E+00 0.00E+00 0.00E+00 0.00E+00 0.00E+00 0.00E+00 0.00E+00 0.00E+00 0.00E+00 0.00E+00
                               0.00E+00 0.00E+00
   3     2.00  805.000  287.7  0.00E+00 0.00E+00 0.00E+00 0.00E+00 0.00E+00 0.00E+00 0.00E+00 0.00E+00 0.00E+00 0.00E+00 0.00E+00
                               0.00E+00 0.00E+00
   4     3.00  715.000  283.7  0.00E+00 0.00E+00 0.00E+00 0.00E+00 0.00E+00 0.00E+00 0.00E+00 0.00E+00 0.00E+00 0.00E+00 0.00E+00
                               0.00E+00 0.00E+00
   5     4.00  633.000  277.0  0.00E+00 0.00E+00 0.00E+00 0.00E+00 0.00E+00 0.00E+00 0.00E+00 0.00E+00 0.00E+00 0.00E+00 0.00E+00
                               0.00E+00 0.00E+00
   6     5.00  559.000  270.3  0.00E+00 0.00E+00 0.00E+00 0.00E+00 0.00E+00 0.00E+00 0.00E+00 0.00E+00 0.00E+00 0.00E+00 0.00E+00
                               0.00E+00 0.00E+00
   7     6.00  492.000  263.6  0.00E+00 0.00E+00 0.00E+00 0.00E+00 0.00E+00 0.00E+00 0.00E+00 0.00E+00 0.00E+00 0.00E+00 0.00E+00
                               0.00E+00 0.00E+00
   8     7.00  432.000  257.0  0.00E+00 0.00E+00 0.00E+00 0.00E+00 0.00E+00 0.00E+00 0.00E+00 0.00E+00 0.00E+00 0.00E+00 0.00E+00
                               0.00E+00 0.00E+00
   9     8.00  378.000  250.3  0.00E+00 0.00E+00 0.00E+00 0.00E+00 0.00E+00 0.00E+00 0.00E+00 0.00E+00 0.00E+00 0.00E+00 0.00E+00
                               0.00E+00 0.00E+00
  10     9.00  329.000  243.6  0.00E+00 0.00E+00 0.00E+00 0.00E+00 0.00E+00 0.00E+00 0.00E+00 0.00E+00 0.00E+00 0.00E+00 0.00E+00
                               0.00E+00 0.00E+00
  11    10.00  286.000  237.0  0.00E+00 0.00E+00 0.00E+00 0.00E+00 0.00E+00 0.00E+00 0.00E+00 0.00E+00 0.00E+00 0.00E+00 0.00E+00
                               0.00E+00 0.00E+00
  12    11.00  247.000  230.1  0.00E+00 0.00E+00 0.00E+00 0.00E+00 0.00E+00 0.00E+00 0.00E+00 0.00E+00 0.00E+00 0.00E+00 0.00E+00
                               0.00E+00 0.00E+00
  13    12.00  213.000  223.6  0.00E+00 0.00E+00 0.00E+00 0.00E+00 0.00E+00 0.00E+00 0.00E+00 0.00E+00 0.00E+00 0.00E+00 0.00E+00
                               0.00E+00 0.00E+00
  14    13.00  182.000  217.0  0.00E+00 0.00E+00 0.00E+00 0.00E+00 0.00E+00 0.00E+00 0.00E+00 0.00E+00 0.00E+00 0.00E+00 0.00E+00
                               0.00E+00 0.00E+00
  15    14.00  156.000  210.3  0.00E+00 0.00E+00 0.00E+00 0.00E+00 0.00E+00 0.00E+00 0.00E+00 0.00E+00 0.00E+00 0.00E+00 0.00E+00
                               0.00E+00 0.00E+00
  16    15.00  132.000  203.7  0.00E+00 0.00E+00 0.00E+00 0.00E+00 0.00E+00 0.00E+00 0.00E+00 0.00E+00 0.00E+00 0.00E+00 0.00E+00
                               0.00E+00 0.00E+00
  17    16.00  111.000  197.0  0.00E+00 0.00E+00 0.00E+00 0.00E+00 0.00E+00 0.00E+00 0.00E+00 0.00E+00 0.00E+00 0.00E+00 0.00E+00
                               0.00E+00 0.00E+00
  18    17.00   93.700  194.8  0.00E+00 0.00E+00 0.00E+00 0.00E+00 0.00E+00 0.00E+00 0.00E+00 0.00E+00 0.00E+00 0.00E+00 0.00E+00
                               0.00E+00 0.00E+00
  19    18.00   78.900  198.8  0.00E+00 0.00E+00 0.00E+00 0.00E+00 0.00E+00 0.00E+00 0.00E+00 0.00E+00 0.00E+00 0.00E+00 0.00E+00
                               0.00E+00 0.00E+00
  20    19.00   66.600  202.7  0.00E+00 0.00E+00 0.00E+00 0.00E+00 0.00E+00 0.00E+00 0.00E+00 0.00E+00 0.00E+00 0.00E+00 0.00E+00
                               0.00E+00 0.00E+00
  21    20.00   56.500  206.7  0.00E+00 0.00E+00 0.00E+00 0.00E+00 0.00E+00 0.00E+00 0.00E+00 0.00E+00 0.00E+00 0.00E+00 0.00E+00
                               0.00E+00 0.00E+00
  22    21.00   48.000  210.7  0.00E+00 0.00E+00 0.00E+00 0.00E+00 0.00E+00 0.00E+00 0.00E+00 0.00E+00 0.00E+00 0.00E+00 0.00E+00
                               0.00E+00 0.00E+00
  23    22.00   40.900  214.6  0.00E+00 0.00E+00 0.00E+00 0.00E+00 0.00E+00 0.00E+00 0.00E+00 0.00E+00 0.00E+00 0.00E+00 0.00E+00
                               0.00E+00 0.00E+00
  24    23.00   35.000  217.0  0.00E+00 0.00E+00 0.00E+00 0.00E+00 0.00E+00 0.00E+00 0.00E+00 0.00E+00 0.00E+00 0.00E+00 0.00E+00
                               0.00E+00 0.00E+00
  25    24.00   30.000  219.2  0.00E+00 0.00E+00 0.00E+00 0.00E+00 0.00E+00 0.00E+00 0.00E+00 0.00E+00 0.00E+00 0.00E+00 0.00E+00
                               0.00E+00 0.00E+00
  26    25.00   25.700  221.4  0.00E+00 0.00E+00 0.00E+00 0.00E+00 0.00E+00 0.00E+00 0.00E+00 0.00E+00 0.00E+00 0.00E+00 0.00E+00
                               0.00E+00 0.00E+00
  27    30.00   12.200  232.3  0.00E+00 0.00E+00 0.00E+00 0.00E+00 0.00E+00 0.00E+00 0.00E+00 0.00E+00 0.00E+00 0.00E+00 0.00E+00
                               0.00E+00 0.00E+00
  28    35.00    6.000  243.1  0.00E+00 0.00E+00 0.00E+00 0.00E+00 0.00E+00 0.00E+00 0.00E+00 0.00E+00 0.00E+00 0.00E+00 0.00E+00
                               0.00E+00 0.00E+00
  29    40.00    3.050  254.0  0.00E+00 0.00E+00 0.00E+00 0.00E+00 0.00E+00 0.00E+00 0.00E+00 0.00E+00 0.00E+00 0.00E+00 0.00E+00
                               0.00E+00 0.00E+00
  30    45.00    1.590  264.8  0.00E+00 0.00E+00 0.00E+00 0.00E+00 0.00E+00 0.00E+00 0.00E+00 0.00E+00 0.00E+00 0.00E+00 0.00E+00
                               0.00E+00 0.00E+00
  31    50.00    0.854  270.2  0.00E+00 0.00E+00 0.00E+00 0.00E+00 0.00E+00 0.00E+00 0.00E+00 0.00E+00 0.00E+00 0.00E+00 0.00E+00
                               0.00E+00 0.00E+00
  32    70.00    0.058  218.9  0.00E+00 0.00E+00 0.00E+00 0.00E+00 0.00E+00 0.00E+00 0.00E+00 0.00E+00 0.00E+00 0.00E+00 0.00E+00
